# Im(k), E-Ef
# k-point    1
   -0.5011    7.0000
   -1.3135    7.0000
   -1.1848    7.0000
   -1.6217    7.0000
   -1.6217    7.0000
   -2.3768    7.0000
   -2.3138    7.0000
   -2.5625    7.0000
   -2.6719    7.0000
   -2.7846    7.0000
   -2.8376    7.0000
   -2.8380    7.0000
   -0.5409    6.6000
   -1.3239    6.6000
   -1.2026    6.6000
   -1.6464    6.6000
   -1.6464    6.6000
   -2.3857    6.6000
   -2.3229    6.6000
   -2.5712    6.6000
   -2.6797    6.6000
   -2.7921    6.6000
   -2.8450    6.6000
   -2.8454    6.6000
   -0.5772    6.2000
   -1.3343    6.2000
   -1.2202    6.2000
   -1.6712    6.2000
   -1.6712    6.2000
   -2.3945    6.2000
   -2.3320    6.2000
   -2.5798    6.2000
   -2.6875    6.2000
   -2.7996    6.2000
   -2.8524    6.2000
   -2.8528    6.2000
   -0.6107    5.8000
   -1.3446    5.8000
   -1.2374    5.8000
   -1.6959    5.8000
   -1.6959    5.8000
   -2.4034    5.8000
   -2.3410    5.8000
   -2.5885    5.8000
   -2.6953    5.8000
   -2.8070    5.8000
   -2.8597    5.8000
   -2.8602    5.8000
   -0.6420    5.4000
   -0.1677    5.4000
   -0.1677    5.4000
   -1.3549    5.4000
   -1.2545    5.4000
   -1.7206    5.4000
   -1.7206    5.4000
   -2.4122    5.4000
   -2.3500    5.4000
   -2.5971    5.4000
   -2.7030    5.4000
   -2.8144    5.4000
   -2.8671    5.4000
   -2.8675    5.4000
   -0.0279    5.0000
   -0.6713    5.0000
   -0.2841    5.0000
   -0.2841    5.0000
   -1.3652    5.0000
   -1.2713    5.0000
   -1.7452    5.0000
   -1.7452    5.0000
   -2.4210    5.0000
   -2.3589    5.0000
   -2.6058    5.0000
   -2.7108    5.0000
   -2.8218    5.0000
   -2.8744    5.0000
   -2.8749    5.0000
   -0.2090    4.6000
   -0.6989    4.6000
   -0.3653    4.6000
   -0.3653    4.6000
   -1.3754    4.6000
   -1.2879    4.6000
   -1.7698    4.6000
   -1.7698    4.6000
   -2.4298    4.6000
   -2.3678    4.6000
   -2.6144    4.6000
   -2.7185    4.6000
   -2.8292    4.6000
   -2.8817    4.6000
   -2.8822    4.6000
   -0.2941    4.2000
   -0.7250    4.2000
   -0.4317    4.2000
   -0.4317    4.2000
   -1.3855    4.2000
   -1.3043    4.2000
   -1.7943    4.2000
   -1.7943    4.2000
   -2.4386    4.2000
   -2.3767    4.2000
   -2.6230    4.2000
   -2.7261    4.2000
   -2.8365    4.2000
   -2.8890    4.2000
   -2.8895    4.2000
   -0.3595    3.8000
   -0.7499    3.8000
   -0.4894    3.8000
   -0.4894    3.8000
   -1.3957    3.8000
   -1.3204    3.8000
   -1.8187    3.8000
   -1.8187    3.8000
   -2.4474    3.8000
   -2.3856    3.8000
   -2.6316    3.8000
   -2.7338    3.8000
   -2.8439    3.8000
   -2.8968    3.8000
   -0.7736    3.4000
   -0.4146    3.4000
   -0.5412    3.4000
   -0.5412    3.4000
   -1.4057    3.4000
   -1.3364    3.4000
   -1.8430    3.4000
   -1.8430    3.4000
   -2.4561    3.4000
   -2.3944    3.4000
   -2.6402    3.4000
   -2.7414    3.4000
   -2.8512    3.4000
   -2.9040    3.4000
   -0.4632    3.0000
   -0.7962    3.0000
   -0.5886    3.0000
   -0.5886    3.0000
   -1.4158    3.0000
   -1.3522    3.0000
   -1.8670    3.0000
   -1.8670    3.0000
   -2.4648    3.0000
   -2.4032    3.0000
   -2.6488    3.0000
   -2.7491    3.0000
   -2.8585    3.0000
   -2.9113    3.0000
   -0.8180    2.6000
   -0.5071    2.6000
   -0.6327    2.6000
   -0.6327    2.6000
   -1.4258    2.6000
   -1.3677    2.6000
   -1.8907    2.6000
   -1.8907    2.6000
   -2.4735    2.6000
   -2.4119    2.6000
   -2.6573    2.6000
   -2.7566    2.6000
   -2.8658    2.6000
   -2.9185    2.6000
   -0.8389    2.2000
   -0.5475    2.2000
   -0.6741    2.2000
   -0.6741    2.2000
   -1.4358    2.2000
   -1.3832    2.2000
   -1.9142    2.2000
   -1.9142    2.2000
   -2.4822    2.2000
   -2.4207    2.2000
   -2.6659    2.2000
   -2.7642    2.2000
   -2.8730    2.2000
   -2.9257    2.2000
   -0.8590    1.8000
   -0.5851    1.8000
   -0.7134    1.8000
   -0.7134    1.8000
   -1.4457    1.8000
   -1.3984    1.8000
   -1.9373    1.8000
   -1.9373    1.8000
   -2.4909    1.8000
   -2.4294    1.8000
   -2.6744    1.8000
   -2.7718    1.8000
   -2.8803    1.8000
   -2.9329    1.8000
   -0.8784    1.4000
   -0.6203    1.4000
   -0.7508    1.4000
   -0.7508    1.4000
   -1.4556    1.4000
   -1.4135    1.4000
   -1.9600    1.4000
   -1.9599    1.4000
   -2.4995    1.4000
   -2.4380    1.4000
   -2.6830    1.4000
   -2.7793    1.4000
   -2.8875    1.4000
   -2.9401    1.4000
   -0.8972    1.0000
   -0.6536    1.0000
   -0.7866    1.0000
   -0.7866    1.0000
   -1.4654    1.0000
   -1.4284    1.0000
   -1.9822    1.0000
   -1.9822    1.0000
   -2.5081    1.0000
   -2.4466    1.0000
   -2.6915    1.0000
   -2.7868    1.0000
   -2.8947    1.0000
   -2.9472    1.0000
   -0.9153    0.6000
   -0.6853    0.6000
   -0.8211    0.6000
   -0.8211    0.6000
   -1.4752    0.6000
   -1.4431    0.6000
   -2.0040    0.6000
   -2.0040    0.6000
   -2.5167    0.6000
   -2.4552    0.6000
   -2.7000    0.6000
   -2.7943    0.6000
   -2.9019    0.6000
   -2.9544    0.6000
   -0.9329    0.2000
   -0.7156    0.2000
   -0.8544    0.2000
   -0.8544    0.2000
   -1.4850    0.2000
   -1.4577    0.2000
   -2.0253    0.2000
   -2.0253    0.2000
   -2.5253    0.2000
   -2.4638    0.2000
   -2.7085    0.2000
   -2.8018    0.2000
   -2.9091    0.2000
   -2.9615    0.2000
   -0.9500   -0.2000
   -0.7447   -0.2000
   -0.8867   -0.2000
   -0.8867   -0.2000
   -1.4947   -0.2000
   -1.4721   -0.2000
   -2.0461   -0.2000
   -2.0460   -0.2000
   -2.5338   -0.2000
   -2.4723   -0.2000
   -2.7170   -0.2000
   -2.8092   -0.2000
   -2.9162   -0.2000
   -2.9686   -0.2000
   -0.9667   -0.6000
   -0.7726   -0.6000
   -0.9180   -0.6000
   -0.9180   -0.6000
   -1.5044   -0.6000
   -1.4864   -0.6000
   -2.0663   -0.6000
   -2.0663   -0.6000
   -2.5424   -0.6000
   -2.4808   -0.6000
   -2.7255   -0.6000
   -2.8167   -0.6000
   -2.9234   -0.6000
   -2.9757   -0.6000
   -0.9828   -1.0000
   -0.7995   -1.0000
   -1.5141   -1.0000
   -0.9486   -1.0000
   -0.9486   -1.0000
   -1.5006   -1.0000
   -2.0860   -1.0000
   -2.0860   -1.0000
   -2.5509   -1.0000
   -2.4893   -1.0000
   -2.7339   -1.0000
   -2.8241   -1.0000
   -2.9305   -1.0000
   -2.9828   -1.0000
   -0.9986   -1.4000
   -0.8256   -1.4000
   -1.5237   -1.4000
   -0.9785   -1.4000
   -0.9785   -1.4000
   -1.5146   -1.4000
   -2.1052   -1.4000
   -2.1052   -1.4000
   -2.5594   -1.4000
   -2.4977   -1.4000
   -2.7424   -1.4000
   -2.8315   -1.4000
   -2.9376   -1.4000
   -2.9898   -1.4000
   -1.0139   -1.8000
   -0.8508   -1.8000
   -1.5333   -1.8000
   -1.0078   -1.8000
   -1.0078   -1.8000
   -1.5285   -1.8000
   -2.1239   -1.8000
   -2.1238   -1.8000
   -2.5679   -1.8000
   -2.5062   -1.8000
   -2.7509   -1.8000
   -2.8388   -1.8000
   -2.9447   -1.8000
   -2.9969   -1.8000
   -0.0336   -2.2000
   -1.0289   -2.2000
   -0.8753   -2.2000
   -1.0366   -2.2000
   -1.0366   -2.2000
   -1.5429   -2.2000
   -1.5423   -2.2000
   -2.1420   -2.2000
   -2.1420   -2.2000
   -2.5763   -2.2000
   -2.5146   -2.2000
   -2.7593   -2.2000
   -2.8462   -2.2000
   -2.9518   -2.2000
   -0.0370   -2.6000
   -1.0436   -2.6000
   -0.8991   -2.6000
   -1.5524   -2.6000
   -1.0648   -2.6000
   -1.0648   -2.6000
   -1.5560   -2.6000
   -2.1597   -2.6000
   -2.1596   -2.6000
   -2.5848   -2.6000
   -2.5229   -2.6000
   -2.7678   -2.6000
   -2.8535   -2.6000
   -2.9588   -2.6000
   -0.0239   -3.0000
   -1.0579   -3.0000
   -0.9224   -3.0000
   -1.5619   -3.0000
   -1.0927   -3.0000
   -1.0927   -3.0000
   -1.5695   -3.0000
   -2.1769   -3.0000
   -2.1768   -3.0000
   -2.5932   -3.0000
   -2.5312   -3.0000
   -2.7764   -3.0000
   -2.8609   -3.0000
   -2.9659   -3.0000
   -1.0719   -3.4000
   -0.9450   -3.4000
   -1.5714   -3.4000
   -1.1201   -3.4000
   -1.1201   -3.4000
   -1.5829   -3.4000
   -2.1936   -3.4000
   -2.1935   -3.4000
   -2.5395   -3.4000
   -2.8682   -3.4000
   -2.9729   -3.4000
   -1.0856   -3.8000
   -0.9671   -3.8000
   -1.5808   -3.8000
   -1.1473   -3.8000
   -1.1473   -3.8000
   -1.5962   -3.8000
   -2.2099   -3.8000
   -2.2098   -3.8000
   -2.5478   -3.8000
   -2.8754   -3.8000
   -2.9799   -3.8000
   -1.0991   -4.2000
   -0.9887   -4.2000
   -1.5902   -4.2000
   -1.1742   -4.2000
   -1.1742   -4.2000
   -1.6094   -4.2000
   -2.2258   -4.2000
   -2.2257   -4.2000
   -2.6182   -4.2000
   -2.5561   -4.2000
   -2.8827   -4.2000
   -2.9869   -4.2000
   -1.1122   -4.6000
   -1.0098   -4.6000
   -1.5996   -4.6000
   -1.2009   -4.6000
   -1.2009   -4.6000
   -1.6224   -4.6000
   -2.2420   -4.6000
   -2.2416   -4.6000
   -2.6265   -4.6000
   -2.5643   -4.6000
   -2.8899   -4.6000
   -2.9939   -4.6000
   -1.1252   -5.0000
   -1.0305   -5.0000
   -1.6089   -5.0000
   -1.2275   -5.0000
   -1.2275   -5.0000
   -1.6354   -5.0000
   -2.1329   -5.0000
   -2.1334   -5.0000
   -2.2562   -5.0000
   -2.2561   -5.0000
   -2.6348   -5.0000
   -2.5725   -5.0000
   -2.8972   -5.0000
   -1.1378   -5.4000
   -1.0508   -5.4000
   -1.6182   -5.4000
   -1.2540   -5.4000
   -1.2540   -5.4000
   -1.6483   -5.4000
   -2.0973   -5.4000
   -2.0976   -5.4000
   -2.2710   -5.4000
   -2.2709   -5.4000
   -2.6431   -5.4000
   -2.5806   -5.4000
   -2.9044   -5.4000
   -1.1503   -5.8000
   -1.0707   -5.8000
   -1.6275   -5.8000
   -1.2805   -5.8000
   -1.2805   -5.8000
   -1.6610   -5.8000
   -2.0702   -5.8000
   -2.0705   -5.8000
   -2.2854   -5.8000
   -2.2853   -5.8000
   -2.6513   -5.8000
   -2.5888   -5.8000
   -2.9116   -5.8000
   -1.1626   -6.2000
   -1.0902   -6.2000
   -1.6367   -6.2000
   -1.3070   -6.2000
   -1.3070   -6.2000
   -1.6737   -6.2000
   -2.0473   -6.2000
   -2.0475   -6.2000
   -2.2995   -6.2000
   -2.2994   -6.2000
   -2.6596   -6.2000
   -2.5969   -6.2000
   -2.9187   -6.2000
   -1.1746   -6.6000
   -1.1093   -6.6000
   -1.6459   -6.6000
   -1.3336   -6.6000
   -1.3336   -6.6000
   -1.6863   -6.6000
   -2.0269   -6.6000
   -2.0270   -6.6000
   -2.3133   -6.6000
   -2.3132   -6.6000
   -2.6678   -6.6000
   -2.6050   -6.6000
   -2.9259   -6.6000
   -1.1865   -7.0000
   -1.1282   -7.0000
   -1.6551   -7.0000
   -1.3604   -7.0000
   -1.3604   -7.0000
   -1.6987   -7.0000
   -2.0081   -7.0000
   -2.0082   -7.0000
   -2.3269   -7.0000
   -2.3267   -7.0000
   -2.6760   -7.0000
   -2.6131   -7.0000
   -2.9330   -7.0000
   -1.1981   -7.4000
   -1.1467   -7.4000
   -1.6643   -7.4000
   -1.3876   -7.4000
   -1.3876   -7.4000
   -1.7111   -7.4000
   -1.9902   -7.4000
   -1.9904   -7.4000
   -2.3401   -7.4000
   -2.3399   -7.4000
   -2.6842   -7.4000
   -2.6211   -7.4000
   -2.9402   -7.4000
   -1.2096   -7.8000
   -1.1650   -7.8000
   -1.6734   -7.8000
   -1.4152   -7.8000
   -1.4152   -7.8000
   -1.7234   -7.8000
   -1.9730   -7.8000
   -1.9731   -7.8000
   -2.3531   -7.8000
   -2.3529   -7.8000
   -2.6923   -7.8000
   -2.6291   -7.8000
   -2.9473   -7.8000
   -1.2209   -8.2000
   -1.1829   -8.2000
   -1.6825   -8.2000
   -1.4434   -8.2000
   -1.4434   -8.2000
   -1.7356   -8.2000
   -1.9559   -8.2000
   -1.9561   -8.2000
   -2.3658   -8.2000
   -2.3656   -8.2000
   -2.7004   -8.2000
   -2.6371   -8.2000
   -2.9544   -8.2000
   -1.2321   -8.6000
   -1.2006   -8.6000
   -1.6915   -8.6000
   -1.4725   -8.6000
   -1.4725   -8.6000
   -1.7477   -8.6000
   -1.9386   -8.6000
   -1.9388   -8.6000
   -2.3784   -8.6000
   -2.3781   -8.6000
   -2.7086   -8.6000
   -2.6451   -8.6000
   -2.9614   -8.6000
   -1.2431   -9.0000
   -1.2180   -9.0000
   -1.7006   -9.0000
   -1.5028   -9.0000
   -1.5027   -9.0000
   -1.7598   -9.0000
   -1.9207   -9.0000
   -1.9208   -9.0000
   -2.3907   -9.0000
   -2.3903   -9.0000
   -2.7167   -9.0000
   -2.6530   -9.0000
   -2.9685   -9.0000
   -1.2540   -9.4000
   -1.2352   -9.4000
   -1.7096   -9.4000
   -1.5347   -9.4000
   -1.5347   -9.4000
   -1.7717   -9.4000
   -1.9014   -9.4000
   -1.9016   -9.4000
   -2.4028   -9.4000
   -2.4024   -9.4000
   -2.7247   -9.4000
   -2.6609   -9.4000
   -2.9755   -9.4000
   -1.2647   -9.8000
   -1.2521   -9.8000
   -1.7186   -9.8000
   -1.5694   -9.8000
   -1.5693   -9.8000
   -1.7836   -9.8000
   -1.8799   -9.8000
   -1.8801   -9.8000
   -2.4148   -9.8000
   -2.4142   -9.8000
   -2.5419   -9.8000
   -2.7328   -9.8000
   -2.6688   -9.8000
   -2.9825   -9.8000
   -1.2752  -10.2000
   -1.2688  -10.2000
   -1.7276  -10.2000
   -1.6084  -10.2000
   -1.6084  -10.2000
   -1.7954  -10.2000
   -1.8542  -10.2000
   -1.8545  -10.2000
   -2.4267  -10.2000
   -2.4257  -10.2000
   -2.7408  -10.2000
   -2.5590  -10.2000
   -2.5541  -10.2000
   -2.6767  -10.2000
   -2.9895  -10.2000
   -1.2857  -10.6000
   -1.2853  -10.6000
   -1.7365  -10.6000
   -1.6572  -10.6000
   -1.6572  -10.6000
   -1.8071  -10.6000
   -2.7489  -10.6000
   -2.6845  -10.6000
   -2.9965  -10.6000
   -1.2960  -11.0000
   -1.3016  -11.0000
   -1.7454  -11.0000
   -1.8187  -11.0000
   -2.7569  -11.0000
   -2.6923  -11.0000
   -1.3062  -11.4000
   -1.3177  -11.4000
   -1.7543  -11.4000
   -1.8303  -11.4000
   -2.7649  -11.4000
   -2.7001  -11.4000
   -0.1162  -11.8000
   -1.3162  -11.8000
   -1.3335  -11.8000
   -1.7632  -11.8000
   -1.8417  -11.8000
   -2.7728  -11.8000
   -2.7079  -11.8000
   -0.2353  -12.2000
   -1.3262  -12.2000
   -1.3492  -12.2000
   -1.7720  -12.2000
   -1.8532  -12.2000
   -2.7808  -12.2000
   -2.7157  -12.2000
   -0.3115  -12.6000
   -1.3360  -12.6000
   -1.3647  -12.6000
   -1.7808  -12.6000
   -1.8645  -12.6000
   -2.7887  -12.6000
   -2.7234  -12.6000
   -2.9761  -12.6000
